timestamps,TP9,AF7,AF8,TP10,Right AUX
1748874952.575,-553.223,-731.934,-1000.000,-842.285,0.000
1748874952.579,860.840,672.852,-72.266,-17.090,0.000
1748874952.583,-983.398,-998.535,-877.930,-1000.000,0.000
1748874952.587,992.676,-896.973,270.020,-769.043,0.000
1748874952.590,369.141,5.371,-1000.000,648.438,0.000
1748874952.594,520.020,-291.016,-885.742,-880.859,0.000
1748874952.598,-964.355,-988.281,393.066,-294.434,0.000
1748874952.602,978.516,-969.238,-976.074,-1000.000,0.000
1748874952.606,862.793,804.688,552.246,-1000.000,0.000
1748874952.610,-562.500,-567.383,-600.586,-61.523,0.000
1748874952.614,-1000.000,-1000.000,-1000.000,-803.711,0.000
1748874952.618,194.336,134.277,-212.402,-15.137,0.000
1748874952.622,-773.926,-774.902,-945.801,-1000.000,0.000
1748874952.626,168.457,162.598,21.973,-916.992,0.000
1748874952.629,-1000.000,-1000.000,-1000.000,338.867,0.000
1748874952.633,-957.031,-1000.000,-1000.000,-778.809,0.000
1748874952.637,336.914,196.289,-172.363,171.387,0.000
1748874952.641,-780.762,-769.531,-858.887,-1000.000,0.000
1748874952.645,164.062,162.109,79.590,-896.973,0.000
1748874952.649,-1000.000,-1000.000,-1000.000,428.223,0.000
1748874952.653,-957.031,-993.652,-1000.000,-785.645,0.000
1748874952.657,336.914,269.043,-76.660,163.574,0.000
1748874952.661,-774.414,-769.043,-806.152,-1000.000,0.000
1748874952.665,143.555,144.043,123.047,-1000.000,0.000
1748874952.669,-1000.000,-1000.000,-1000.000,143.555,0.000
1748874952.672,-1000.000,-1000.000,-1000.000,-767.578,0.000
1748874952.676,68.848,48.340,-216.309,423.828,0.000
1748874952.680,-766.602,-764.648,-821.289,-894.531,0.000
1748874952.684,145.996,214.844,240.234,-1000.000,0.000
1748874952.688,-1000.000,-999.512,-1000.000,-109.375,0.000
1748874952.692,-1000.000,-1000.000,-1000.000,-853.516,0.000
1748874952.696,-60.547,-144.043,-255.859,672.852,0.000
1748874952.700,-780.762,-805.176,-830.566,-694.336,0.000
1748874952.704,341.797,433.105,344.727,-1000.000,0.000
1748874952.708,-945.312,-910.156,-966.797,-195.801,0.000
1748874952.711,-1000.000,-1000.000,-1000.000,-954.102,0.000
1748874952.715,-250.488,-235.840,-240.234,928.711,0.000
1748874952.719,-850.586,-880.859,-882.812,-366.211,0.000
1748874952.723,550.781,676.270,651.367,-1000.000,0.000
1748874952.727,-855.469,-719.238,-700.684,-170.898,0.000
1748874952.731,-1000.000,-1000.000,-1000.000,-996.094,0.000
1748874952.735,-215.332,-197.754,-235.352,-951.172,0.000
1748874952.739,-921.387,-950.684,-999.023,-69.824,0.000
1748874952.743,815.430,914.062,-989.746,-1000.000,0.000
1748874952.747,-539.551,-379.883,-192.383,-270.020,0.000
1748874952.751,-1000.000,-1000.000,-1000.000,960.449,0.000
1748874952.754,-179.199,-229.492,-458.496,-912.109,0.000
1748874952.758,-985.840,987.793,886.230,128.906,0.000
1748874952.762,-983.887,-954.590,-910.645,-1000.000,0.000
1748874952.766,-173.340,-96.191,-82.031,-502.930,0.000
1748874952.770,-1000.000,-1000.000,-1000.000,858.887,0.000
1748874952.774,-364.746,-408.203,-565.918,-866.699,0.000
1748874952.778,922.363,902.344,805.176,191.406,0.000
1748874952.782,-907.715,-895.996,-870.605,-1000.000,0.000
1748874952.786,17.090,60.059,6.348,-844.727,0.000
1748874952.790,-1000.000,-1000.000,-1000.000,510.742,0.000
1748874952.794,-465.820,-563.965,-717.285,-795.410,0.000
1748874952.797,866.211,808.594,631.836,149.902,0.000
1748874952.801,-872.070,-850.586,-819.824,-1000.000,0.000
1748874952.805,204.590,185.059,142.578,-1000.000,0.000
1748874952.809,-1000.000,-1000.000,-1000.000,148.438,0.000
1748874952.813,-719.238,-857.910,-918.945,-757.812,0.000
1748874952.817,674.316,491.211,386.230,239.258,0.000
1748874952.821,-824.219,-792.480,-780.273,-993.164,0.000
1748874952.825,166.992,148.438,154.297,-1000.000,0.000
1748874952.829,-1000.000,-1000.000,-1000.000,-54.199,0.000
1748874952.833,-957.031,-1000.000,-1000.000,-789.551,0.000
1748874952.836,336.914,131.348,117.676,435.547,0.000
1748874952.840,-773.926,-760.742,-766.602,-896.484,0.000
1748874952.844,142.090,143.555,261.230,-1000.000,0.000
1748874952.848,-1000.000,-1000.000,-970.215,-233.887,0.000
1748874952.852,-1000.000,-1000.000,-1000.000,-884.766,0.000
1748874952.856,42.480,-104.492,-181.152,690.430,0.000
1748874952.860,-767.578,-788.574,-821.777,-703.613,0.000
1748874952.864,335.938,347.656,447.266,-1000.000,0.000
1748874952.868,-945.801,-948.730,-899.414,-195.801,0.000
1748874952.872,-1000.000,-1000.000,-1000.000,-954.102,0.000
1748874952.876,-165.039,-247.559,-206.055,928.223,0.000
1748874952.879,-828.125,-859.863,-958.496,-366.211,0.000
1748874952.883,538.086,595.215,942.383,-1000.000,0.000
1748874952.887,-849.121,-807.617,-333.008,-171.387,0.000
1748874952.891,-1000.000,-1000.000,-1000.000,-995.117,0.000
1748874952.895,-215.332,-208.008,-175.781,-956.543,0.000
1748874952.899,-921.387,-935.059,-987.793,-71.289,0.000
1748874952.903,815.430,859.863,-961.426,-1000.000,0.000
1748874952.907,-539.551,-461.426,-119.141,-367.188,0.000
1748874952.911,-1000.000,-1000.000,-1000.000,919.434,0.000
1748874952.915,-179.199,-251.465,-242.188,-897.949,0.000
1748874952.919,-985.840,989.258,986.816,107.422,0.000
1748874952.922,-983.887,-970.703,-943.848,-1000.000,0.000
1748874952.926,-173.340,-161.621,-27.344,-563.477,0.000
1748874952.930,-1000.000,-1000.000,-1000.000,817.871,0.000
1748874952.934,-360.352,-448.242,-519.043,-853.027,0.000
1748874952.938,924.316,874.512,840.820,186.523,0.000
1748874952.942,-910.645,-886.719,-871.094,-1000.000,0.000
1748874952.946,17.090,47.852,89.844,-845.215,0.000
1748874952.950,-1000.000,-1000.000,-1000.000,510.254,0.000
1748874952.954,-552.734,-665.527,-740.723,-797.363,0.000
1748874952.958,811.035,697.754,619.141,156.738,0.000
1748874952.961,-852.051,-827.637,-814.453,-1000.000,0.000
1748874952.965,186.035,173.828,152.832,-997.559,0.000
1748874952.969,-1000.000,-1000.000,-1000.000,241.699,0.000
1748874952.973,-844.727,-912.109,-980.957,-770.020,0.000
1748874952.977,510.742,406.738,274.902,155.273,0.000
1748874952.981,-795.898,-782.227,-768.066,-1000.000,0.000
1748874952.985,149.902,145.996,163.574,-1000.000,0.000
1748874952.989,-1000.000,-1000.000,-1000.000,-59.082,0.000
1748874952.993,-1000.000,-1000.000,-1000.000,-781.250,0.000
1748874952.997,154.297,95.215,-144.043,354.004,0.000
1748874953.001,-762.207,-762.207,-800.781,-938.477,0.000
1748874953.004,145.996,245.605,294.922,-1000.000,0.000
1748874953.008,-1000.000,-1000.000,-998.535,-235.352,0.000
1748874953.012,-1000.000,-1000.000,-1000.000,-895.020,0.000
1748874953.016,27.344,-43.945,-149.902,571.777,0.000
1748874953.020,-792.969,-814.941,-851.562,-776.855,0.000
1748874953.024,364.258,434.082,478.516,-1000.000,0.000
1748874953.028,-931.152,-905.762,-879.395,-202.148,0.000
1748874953.032,-1000.000,-1000.000,-1000.000,-951.172,0.000
1748874953.036,-247.070,-235.840,-208.008,916.992,0.000
1748874953.040,-856.934,-881.348,-953.125,-383.789,0.000
1748874953.044,0.000,676.758,919.922,-1000.000,0.000
1748874953.047,0.000,-718.750,-362.793,-171.387,0.000
1748874953.051,0.000,-1000.000,-1000.000,-996.094,0.000
1748874953.055,0.000,-194.824,-198.730,-956.543,0.000
1748874953.059,0.000,-958.496,-991.699,-71.289,0.000
1748874953.063,0.000,938.477,-976.074,-1000.000,0.000
1748874953.067,0.000,-341.309,-140.137,-366.211,0.000
1748874953.071,0.000,-1000.000,-1000.000,918.457,0.000
1748874953.075,0.000,-206.055,-506.348,-895.508,0.000
1748874953.079,0.000,988.281,865.234,120.117,0.000
1748874953.083,0.000,-942.871,-904.785,-1000.000,0.000
1748874953.086,0.000,-36.621,-106.934,-541.504,0.000
1748874953.090,-1000.000,-1000.000,0.000,833.984,0.000
1748874953.094,-364.746,-358.398,0.000,-858.887,0.000
1748874953.098,922.363,918.945,0.000,192.383,0.000
1748874953.102,-910.156,-893.555,0.000,-1000.000,0.000
1748874953.106,17.090,184.570,0.000,-804.199,0.000
1748874953.110,-1000.000,-1000.000,0.000,563.965,0.000
1748874953.114,-552.734,-564.453,0.000,-804.199,0.000
1748874953.118,810.547,830.078,0.000,154.297,0.000
1748874953.122,-852.051,-856.934,0.000,-1000.000,0.000
1748874953.126,186.523,187.500,0.000,-1000.000,0.000
1748874953.129,-1000.000,-1000.000,0.000,191.895,0.000
1748874953.133,-844.727,-844.727,0.000,-761.230,0.000
1748874953.137,510.742,510.742,266.113,240.723,0.000
1748874953.141,-795.898,-794.922,-768.555,-996.094,0.000
1748874953.145,149.902,149.902,169.922,-1000.000,0.000
1748874953.149,-1000.000,-1000.000,-1000.000,-18.555,0.000
1748874953.153,-1000.000,-1000.000,-1000.000,-785.645,0.000
1748874953.157,154.297,148.438,-61.035,430.664,0.000
1748874953.161,-760.254,-757.324,-785.645,-899.902,0.000
1748874953.165,139.160,237.793,276.855,-1000.000,0.000
1748874953.168,-1000.000,-990.723,-976.562,-189.453,0.000
1748874953.172,-1000.000,-1000.000,-1000.000,-872.559,0.000
1748874953.176,-60.547,-78.125,-226.074,684.082,0.000
1748874953.180,-780.762,-793.945,-830.566,-700.195,0.000
1748874953.184,0.000,430.176,437.012,-1000.000,0.000
1748874953.188,0.000,-902.832,-915.039,-196.289,0.000
1748874953.192,0.000,-1000.000,-1000.000,-954.590,0.000
1748874953.196,0.000,-235.352,-215.332,928.711,0.000
1748874953.200,0.000,-881.348,-939.453,-366.211,0.000
1748874953.204,0.000,677.734,874.023,-1000.000,0.000
1748874953.208,0.000,-717.773,-432.617,-174.316,0.000
1748874953.211,0.000,-1000.000,-1000.000,-988.770,0.000
1748874953.215,0.000,-198.242,-186.523,-968.262,0.000
1748874953.219,0.000,-949.707,-989.746,-115.234,0.000
1748874953.223,0.000,911.133,-975.098,-1000.000,0.000
1748874953.227,0.000,-383.301,-137.695,-369.629,0.000
1748874953.231,-1000.000,-1000.000,-1000.000,926.270,0.000
1748874953.235,-179.199,-238.770,-450.195,-909.668,0.000
1748874953.239,-985.840,983.398,891.602,17.090,0.000
1748874953.243,-983.887,-951.660,-909.668,-1000.000,0.000
1748874953.247,-173.340,-89.355,-67.383,-552.246,0.000
1748874953.251,-1000.000,-1000.000,-1000.000,811.523,0.000
1748874953.254,-364.746,-434.570,-605.469,-851.562,0.000
1748874953.258,922.363,884.277,762.695,186.523,0.000
1748874953.262,-910.156,-885.742,-856.445,-1000.000,0.000
1748874953.266,17.090,83.984,35.156,-844.727,0.000
1748874953.270,-1000.000,-1000.000,-1000.000,510.742,0.000
1748874953.274,-552.734,-661.621,-817.871,-795.410,0.000
1748874953.278,811.035,708.984,510.742,149.902,0.000
1748874953.282,-852.051,-830.566,-799.805,-1000.000,0.000
1748874953.286,186.523,175.293,125.977,-1000.000,0.000
1748874953.290,-1000.000,-1000.000,-1000.000,150.879,0.000
1748874953.293,-844.727,-903.320,-1000.000,-758.789,0.000
1748874953.297,510.254,420.410,215.332,201.172,0.000
1748874953.301,-795.898,-784.180,-766.113,-1000.000,0.000
1748874953.305,149.902,146.973,152.832,-1000.000,0.000
1748874953.309,-1000.000,-1000.000,-1000.000,-43.945,0.000
1748874953.313,-1000.000,-1000.000,-1000.000,-789.062,0.000
1748874953.317,153.809,105.469,-149.902,419.434,0.000
1748874953.321,-760.254,-760.742,-799.805,-950.684,0.000
1748874953.325,0.000,224.609,0.000,0.000,0.000
1748874953.329,0.000,-998.535,0.000,0.000,0.000
1748874953.333,0.000,-1000.000,0.000,0.000,0.000
1748874953.336,0.000,-10.254,0.000,0.000,0.000
1748874953.340,0.000,-925.293,0.000,0.000,0.000
1748874953.344,0.000,932.129,0.000,0.000,0.000
1748874953.348,0.000,972.656,0.000,0.000,0.000
1748874953.352,0.000,900.391,0.000,0.000,0.000
1748874953.356,0.000,-909.180,0.000,0.000,0.000
1748874953.360,0.000,616.699,0.000,0.000,0.000
1748874953.364,0.000,-1000.000,0.000,0.000,0.000
1748874953.368,0.000,-269.043,0.000,0.000,0.000
1748874953.372,-950.195,-963.379,961.914,791.016,0.000
1748874953.376,-942.871,-936.035,-922.852,267.090,0.000
1748874953.379,242.676,237.793,-4.395,-1000.000,0.000
1748874953.383,-1000.000,-1000.000,-1000.000,-1000.000,0.000
1748874953.387,-398.438,-536.621,-861.816,-909.180,0.000
1748874953.391,931.152,854.004,458.496,659.180,0.000
1748874953.395,-895.508,-863.770,-812.012,662.109,0.000
1748874953.399,211.914,186.523,-92.285,-903.809,0.000
1748874953.403,-1000.000,-1000.000,-1000.000,-1000.000,0.000
1748874953.407,-719.238,-873.535,-1000.000,-831.055,0.000
1748874953.411,674.316,463.867,-140.137,513.672,0.000
1748874953.415,-820.801,-789.062,-816.895,-860.352,0.000
1748874953.418,152.832,144.531,60.059,-244.629,0.000
1748874953.422,-1000.000,-1000.000,-1000.000,-1000.000,0.000
1748874953.426,-1000.000,-1000.000,-1000.000,-923.828,0.000
1748874953.430,172.852,82.031,-223.633,336.426,0.000
1748874953.434,-815.430,-762.695,-883.301,-833.496,0.000
1748874953.438,43.945,133.789,42.480,-38.086,0.000
1748874953.442,-1000.000,-1000.000,-1000.000,-1000.000,0.000
1748874953.446,-1000.000,-1000.000,-1000.000,-1000.000,0.000
1748874953.450,-155.273,-232.910,-269.043,165.527,0.000
1748874953.454,-798.828,-819.336,-832.031,-760.742,0.000
1748874953.458,158.203,169.922,201.660,145.996,0.000
1748874953.461,-1000.000,-1000.000,-1000.000,-1000.000,0.000
1748874953.465,-1000.000,-1000.000,-1000.000,-1000.000,0.000
1748874953.469,-254.883,-264.160,-272.461,48.828,0.000
1748874953.473,-826.172,-826.660,-831.543,-765.625,0.000
1748874953.477,172.363,358.887,311.035,213.379,0.000
1748874953.481,-1000.000,-963.867,-983.887,-1000.000,0.000
1748874953.485,-1000.000,-1000.000,-1000.000,-1000.000,0.000
1748874953.489,-266.602,-245.605,-263.184,-56.641,0.000
1748874953.493,-834.473,-870.117,-881.836,-790.039,0.000
1748874953.497,461.914,640.625,589.844,442.383,0.000
1748874953.500,-912.109,-758.301,-741.699,-902.832,0.000
1748874953.504,-1000.000,-1000.000,-1000.000,-1000.000,0.000
1748874953.508,-233.887,-208.496,-289.062,-133.789,0.000
1748874953.512,-885.254,-926.270,975.098,-895.508,0.000
1748874953.516,689.941,836.426,-999.512,803.223,0.000
1748874953.520,-703.613,-505.371,-184.570,-532.715,0.000
1748874953.524,-1000.000,-1000.000,-1000.000,-1000.000,0.000
1748874953.528,-208.984,-185.547,-494.141,-178.711,0.000
1748874953.532,-919.922,-968.750,866.699,-985.352,0.000
1748874953.536,815.430,975.586,-903.809,-974.121,0.000
1748874953.540,-539.551,-262.207,-83.008,-183.105,0.000
1748874953.543,-1000.000,-1000.000,-1000.000,-1000.000,0.000
1748874953.547,-166.992,-261.230,-521.973,-172.363,0.000
1748874953.551,992.188,958.984,832.520,-994.141,0.000
1748874953.555,-943.848,-920.898,-874.023,-948.730,0.000
1748874953.559,-16.602,51.270,76.660,-27.832,0.000
1748874953.563,-1000.000,-1000.000,-1000.000,-1000.000,0.000
1748874953.567,-308.105,-445.801,-620.117,-377.441,0.000
1748874953.571,937.988,881.836,754.883,931.641,0.000
1748874953.575,-898.926,-876.953,-847.656,-910.156,0.000
1748874953.579,226.562,194.336,176.758,7.812,0.000
1748874953.583,-1000.000,-1000.000,-1000.000,-1000.000,0.000
1748874953.586,-491.699,-740.234,-785.645,-708.008,0.000
1748874953.590,882.812,642.578,563.965,674.805,0.000
1748874953.594,-876.953,-817.383,-812.988,-831.543,0.000
1748874953.598,204.590,160.645,273.438,-65.918,0.000
1748874953.602,-1000.000,-1000.000,-1000.000,-1000.000,0.000
1748874953.606,-719.238,-1000.000,-923.828,-1000.000,0.000
1748874953.610,674.316,255.371,390.625,-33.691,0.000
1748874953.614,-830.078,-771.484,-791.504,-799.805,0.000
1748874953.618,187.012,156.250,297.852,-57.129,0.000
1748874953.622,-1000.000,-1000.000,-1000.000,-1000.000,0.000
1748874953.625,-799.805,-984.375,-976.562,-1000.000,0.000
1748874953.629,584.961,193.848,188.965,-62.988,0.000
1748874953.633,-801.270,-788.574,-814.453,-869.141,0.000
1748874953.637,247.070,141.602,345.703,-84.961,0.000
1748874953.641,-1000.000,-1000.000,-934.082,-1000.000,0.000
1748874953.645,-1000.000,-1000.000,-1000.000,-1000.000,0.000
1748874953.649,151.855,-186.035,-189.453,-268.555,0.000
1748874953.653,-764.648,-804.199,-912.598,-823.730,0.000
1748874953.657,335.449,258.301,757.812,103.516,0.000
1748874953.661,-951.660,-997.070,-517.578,-1000.000,0.000
1748874953.665,-1000.000,-1000.000,-1000.000,-1000.000,0.000
1748874953.668,-46.387,-258.301,-170.410,-672.852,0.000
1748874953.672,-804.688,-838.867,-991.699,-205.078,0.000
1748874953.676,529.297,479.492,-956.543,-984.863,0.000
1748874953.680,-848.633,-900.391,-81.543,-983.398,0.000
1748874953.684,-1000.000,-1000.000,-1000.000,-1000.000,0.000
1748874953.688,-125.488,-236.816,-183.594,-784.668,0.000
1748874953.692,-860.352,-870.117,-984.863,855.957,0.000
1748874953.696,675.293,625.000,-946.289,155.273,0.000
1748874953.700,-695.801,-770.996,-56.641,-1000.000,0.000
1748874953.704,-1000.000,-1000.000,-1000.000,-1000.000,0.000
1748874953.708,-174.316,-215.820,-190.918,-563.965,0.000
1748874953.711,996.094,-998.047,992.188,-955.078,0.000
1748874953.715,-947.754,-982.910,-925.781,499.512,0.000
1748874953.719,-81.543,-182.129,119.629,-931.641,0.000
1748874953.723,-1000.000,-1000.000,-1000.000,-1000.000,0.000
1748874953.727,-164.551,-270.508,-345.215,-722.656,0.000
1748874953.731,-947.266,-993.164,-998.535,763.184,0.000
1748874953.735,933.594,952.148,957.520,913.574,0.000
1748874953.739,925.781,919.922,894.531,-600.586,0.000
1748874953.743,990.723,997.559,-999.512,-1000.000,0.000
1748874953.747,-39.062,-83.984,-28.320,-251.953,0.000
1748874953.750,-1000.000,-1000.000,-1000.000,829.102,0.000
1748874953.754,-828.613,-1000.000,-1000.000,-871.094,0.000
1748874953.758,497.070,192.871,107.422,199.707,0.000
1748874953.762,-792.969,-760.254,-767.090,-1000.000,0.000
1748874953.766,149.902,139.648,159.180,-839.355,0.000
1748874953.770,-1000.000,-1000.000,-1000.000,504.883,0.000
1748874953.774,-1000.000,-1000.000,-1000.000,-790.527,0.000
1748874953.778,154.297,-33.203,-216.309,240.234,0.000
1748874953.782,-759.766,-776.367,-814.453,-992.188,0.000
1748874953.786,139.160,145.020,280.273,-1000.000,0.000
1748874953.790,-1000.000,-1000.000,-990.723,29.297,0.000
1748874953.793,-1000.000,-1000.000,-1000.000,-791.504,0.000
1748874953.797,-56.152,-240.234,-252.930,524.902,0.000
1748874953.801,-777.344,-817.871,-829.102,-862.305,0.000
1748874953.805,245.117,262.695,309.082,-1000.000,0.000
1748874953.809,-986.816,-1000.000,-969.727,45.898,0.000
1748874953.813,-1000.000,-1000.000,-1000.000,-924.316,0.000
1748874953.817,-258.789,-258.789,-500.000,963.867,0.000
1748874953.821,-848.145,-843.750,-981.934,-292.969,0.000
1748874953.825,550.293,524.414,202.148,-1000.000,0.000
1748874953.829,-855.469,-872.559,-1000.000,154.297,0.000
1748874953.832,-1000.000,-1000.000,-974.609,-966.309,0.000
1748874953.836,-215.820,-209.961,-972.656,-931.641,0.000
1748874953.840,0.000,-939.453,-1000.000,228.516,0.000
1748874953.844,0.000,874.023,-1000.000,-1000.000,0.000
1748874953.848,0.000,-435.059,-998.047,2.930,0.000
1748874953.852,0.000,-1000.000,-997.559,-948.242,0.000
1748874953.856,0.000,-281.738,-1000.000,-933.594,0.000
1748874953.860,0.000,972.656,-876.465,222.168,0.000
1748874953.864,0.000,-957.520,-875.977,-1000.000,0.000
1748874953.868,0.000,-128.906,-1000.000,-113.770,0.000
1748874953.872,0.000,-1000.000,-936.035,996.582,0.000
1748874953.875,0.000,-524.902,-1000.000,-915.039,0.000
1748874953.879,0.000,840.332,-305.664,230.469,0.000
1748874953.883,0.000,-877.930,457.520,-1000.000,0.000
1748874953.887,11.719,-40.527,-731.934,-237.793,0.000
1748874953.891,-1000.000,-1000.000,-1000.000,993.164,0.000
1748874953.895,-641.113,-880.371,-1000.000,-913.574,0.000
1748874953.899,740.723,431.152,-279.785,216.797,0.000
1748874953.903,-888.184,-838.379,971.191,-1000.000,0.000
1748874953.907,81.543,15.137,-236.328,-400.391,0.000
1748874953.911,-1000.000,-1000.000,-1000.000,857.910,0.000
1748874953.914,-964.355,-1000.000,-1000.000,-871.582,0.000
1748874953.918,353.027,100.586,-262.695,380.859,0.000
1748874953.922,-832.031,-818.848,-955.078,-1000.000,0.000
1748874953.926,58.105,51.758,-103.027,-958.496,0.000
1748874953.930,-1000.000,-1000.000,-1000.000,367.676,0.000
1748874953.934,-1000.000,-1000.000,-1000.000,-802.246,0.000
1748874953.938,104.492,-126.953,-282.227,523.926,0.000
1748874953.942,-763.672,-792.969,-871.094,-857.910,0.000
1748874953.946,143.066,154.785,114.258,-1000.000,0.000
1748874953.950,-1000.000,-1000.000,-1000.000,133.301,0.000
1748874953.954,-1000.000,-1000.000,-1000.000,-857.910,0.000
1748874953.957,-60.547,-259.766,-343.262,778.809,0.000
1748874953.961,-780.762,-823.242,-871.582,-521.484,0.000
1748874953.965,341.797,259.766,275.879,-1000.000,0.000
1748874953.969,-945.312,-1000.000,-987.305,-109.375,0.000
1748874953.973,-1000.000,-1000.000,-1000.000,-955.566,0.000
1748874953.977,-250.977,-259.277,-539.062,986.328,0.000
1748874953.981,-850.586,-834.473,-971.191,-232.910,0.000
1748874953.985,550.781,441.406,508.789,-1000.000,0.000
1748874953.989,-855.469,-912.598,-896.484,-172.363,0.000
1748874953.993,-1000.000,-1000.000,-1000.000,-993.164,0.000
1748874953.997,-215.332,-351.074,-547.852,-945.801,0.000
1748874954.000,-920.898,-930.664,850.586,-57.617,0.000
1748874954.004,815.430,714.844,-940.430,-1000.000,0.000
1748874954.008,-540.039,-678.223,-217.773,-215.820,0.000
1748874954.012,-1000.000,-1000.000,-1000.000,980.469,0.000
1748874954.016,-179.199,-475.586,-625.977,-920.410,0.000
1748874954.020,-985.840,919.434,746.094,132.324,0.000
1748874954.024,-984.375,982.422,-871.582,-1000.000,0.000
1748874954.028,0.000,-347.656,-85.449,-464.844,0.000
1748874954.032,0.000,-1000.000,-1000.000,876.465,0.000
1748874954.036,0.000,-646.484,-754.883,-862.305,0.000
1748874954.039,0.000,790.039,664.551,177.246,0.000
1748874954.043,0.000,988.770,-972.168,-1000.000,0.000
1748874954.047,0.000,-358.398,-216.309,-473.145,0.000
1748874954.051,0.000,-1000.000,-1000.000,752.930,0.000
1748874954.055,0.000,-820.801,-868.652,-840.332,0.000
1748874954.059,0.000,460.449,416.992,175.293,0.000
1748874954.063,0.000,-789.551,-787.109,-1000.000,0.000
1748874954.067,0.000,143.555,150.391,-952.148,0.000
1748874954.071,0.000,-1000.000,-1000.000,331.055,0.000
1748874954.075,-844.727,-1000.000,-1000.000,-771.973,0.000
1748874954.079,510.254,212.891,150.391,242.188,0.000
1748874954.082,-795.898,-764.160,-770.020,-999.512,0.000
1748874954.086,149.902,142.090,250.000,-1000.000,0.000
1748874954.090,-1000.000,-1000.000,-973.145,48.828,0.000
1748874954.094,-1000.000,-1000.000,-1000.000,-776.855,0.000
1748874954.098,150.391,-0.488,-190.918,430.664,0.000
1748874954.102,-758.789,-770.020,-817.871,-898.438,0.000
1748874954.106,200.195,226.074,378.418,-1000.000,0.000
1748874954.110,-1000.000,-996.582,-942.871,-131.836,0.000
1748874954.114,-1000.000,-1000.000,-1000.000,-857.422,0.000
1748874954.118,-56.641,-178.711,-210.449,675.781,0.000
1748874954.122,-787.598,-817.383,-932.129,-695.801,0.000
1748874954.125,408.203,476.074,836.914,-1000.000,0.000
1748874954.129,-910.645,-889.648,-453.125,-195.801,0.000
1748874954.133,-1000.000,-1000.000,-1000.000,-954.102,0.000
1748874954.137,-234.375,-225.098,-179.688,928.223,0.000
1748874954.141,-888.672,-905.762,-988.281,-366.211,0.000
1748874954.145,650.879,766.602,-960.449,-1000.000,0.000
1748874954.149,-728.027,-604.492,-129.395,-171.387,0.000
1748874954.153,-1000.000,-1000.000,-1000.000,-995.605,0.000
1748874954.157,-200.684,-183.594,-191.895,-948.730,0.000
1748874954.161,-948.242,-978.516,-995.117,-79.590,0.000
1748874954.164,905.273,999.023,-951.172,-1000.000,0.000
1748874954.168,-400.879,-226.562,-30.762,-200.195,0.000
1748874954.172,-1000.000,-1000.000,-1000.000,983.398,0.000
1748874954.176,-173.340,-209.473,-465.820,-919.434,0.000
1748874954.180,-993.652,985.840,870.605,131.836,0.000
1748874954.184,-963.379,-936.035,-884.766,-1000.000,0.000
1748874954.188,-95.215,7.324,88.379,-383.789,0.000
1748874954.192,-1000.000,-1000.000,-1000.000,923.828,0.000
1748874954.196,-364.258,-400.879,-610.352,-892.090,0.000
1748874954.200,916.504,898.438,766.113,221.680,0.000
1748874954.204,-896.973,-883.301,-848.145,-1000.000,0.000
1748874954.207,119.629,218.262,167.969,-566.895,0.000
1748874954.211,-1000.000,-1000.000,-1000.000,834.961,0.000
1748874954.215,-565.430,-576.172,-785.645,-858.887,0.000
1748874954.219,818.359,826.172,573.242,187.500,0.000
1748874954.223,-854.004,-857.910,-808.105,-1000.000,0.000
1748874954.227,186.523,195.312,216.797,-840.332,0.000
1748874954.231,-1000.000,-1000.000,-1000.000,505.859,0.000
1748874954.235,-844.727,-754.883,-946.289,-793.945,0.000
1748874954.239,510.254,619.141,340.332,230.469,0.000
1748874954.243,-795.898,-815.918,-777.832,-1000.000,0.000
1748874954.246,149.414,239.258,263.672,-1000.000,0.000
1748874954.250,-1000.000,-1000.000,-970.703,149.902,0.000
1748874954.254,-1000.000,-919.922,-1000.000,-766.602,0.000
1748874954.258,154.297,386.719,-91.797,381.348,0.000
1748874954.262,-759.766,-790.527,-804.688,-930.176,0.000
1748874954.266,139.160,421.387,378.906,-1000.000,0.000
1748874954.270,-1000.000,-926.758,-932.617,-26.855,0.000
1748874954.274,-1000.000,-1000.000,-1000.000,-805.176,0.000
1748874954.278,-60.547,142.090,-206.055,539.551,0.000
1748874954.282,-780.762,-808.594,-897.949,-828.613,0.000
1748874954.286,343.750,607.910,719.727,-1000.000,0.000
1748874954.289,-947.754,-743.652,-604.492,-192.383,0.000
1748874954.293,-1000.000,-1000.000,-1000.000,-921.875,0.000
1748874954.297,-220.703,-58.105,-185.059,833.984,0.000
1748874954.301,-842.773,-876.465,-984.375,-505.859,0.000
1748874954.305,546.387,771.973,-978.027,-1000.000,0.000
1748874954.309,-853.027,-557.617,-177.246,-177.734,0.000
1748874954.313,-1000.000,-1000.000,-1000.000,-986.816,0.000
1748874954.317,-215.332,-190.430,-185.547,-970.703,0.000
1748874954.321,-921.387,-958.496,-992.676,-169.434,0.000
1748874954.325,815.430,948.242,-951.172,-1000.000,0.000
1748874954.329,-540.039,-329.102,-59.082,-168.945,0.000
1748874954.332,-1000.000,-1000.000,-1000.000,999.512,0.000
1748874954.336,-181.641,-174.316,-322.754,-934.082,0.000
1748874954.340,-979.980,-989.746,950.684,28.809,0.000
1748874954.344,-998.047,-962.891,-924.316,-1000.000,0.000
1748874954.348,-208.008,-101.074,0.000,-303.223,0.000
1748874954.352,-1000.000,-1000.000,-1000.000,945.801,0.000
1748874954.356,-297.363,-342.285,-541.992,-901.367,0.000
1748874954.360,965.820,931.641,821.777,227.539,0.000
1748874954.364,-941.406,-905.762,-865.723,-1000.000,0.000
1748874954.368,-79.590,76.660,114.258,-533.691,0.000
1748874954.371,-1000.000,-1000.000,-1000.000,855.957,0.000
1748874954.375,-486.328,-523.926,-710.938,-866.699,0.000
1748874954.379,852.051,838.379,659.180,197.266,0.000
1748874954.383,-872.559,-861.328,-824.219,-1000.000,0.000
1748874954.387,101.074,201.172,169.922,-770.508,0.000
1748874954.391,-1000.000,-1000.000,-1000.000,607.910,0.000
1748874954.395,-704.590,-714.355,-873.535,-811.035,0.000
1748874954.399,666.504,678.711,443.848,156.738,0.000
1748874954.403,0.000,-824.707,-789.551,-1000.000,0.000
1748874954.407,0.000,167.480,240.723,-1000.000,0.000
1748874954.411,0.000,-1000.000,-1000.000,205.078,0.000
1748874954.414,0.000,-953.125,-1000.000,-765.625,0.000
1748874954.418,0.000,334.961,139.648,337.891,0.000
1748874954.422,0.000,-772.461,-775.391,-955.566,0.000
1748874954.426,0.000,184.570,295.410,-1000.000,0.000
1748874954.430,0.000,-1000.000,-955.566,1.465,0.000
1748874954.434,0.000,-1000.000,-1000.000,-794.434,0.000
1748874954.438,0.000,17.578,-181.152,497.070,0.000
1748874954.442,0.000,-770.996,-853.516,-854.492,0.000
1748874954.446,0.000,315.430,577.148,-1000.000,0.000
1748874954.450,-988.770,-953.125,0.000,0.000,0.000
1748874954.454,-1000.000,-1000.000,0.000,0.000,0.000
1748874954.457,-157.227,-208.984,0.000,0.000,0.000
1748874954.461,-810.059,-833.008,0.000,0.000,0.000
1748874954.465,447.754,503.906,0.000,0.000,0.000
1748874954.469,-904.297,-877.930,0.000,0.000,0.000
1748874954.473,-1000.000,-1000.000,0.000,0.000,0.000
1748874954.477,-233.887,-224.609,0.000,0.000,0.000
1748874954.481,-885.254,-901.855,0.000,0.000,0.000
1748874954.485,689.941,750.000,0.000,0.000,0.000
1748874954.489,-703.613,-625.977,0.000,0.000,0.000
1748874954.493,-1000.000,-1000.000,0.000,0.000,0.000
1748874954.496,-209.473,-187.500,-188.965,-956.543,0.000
1748874954.500,-919.922,-970.215,-991.699,-71.777,0.000
1748874954.504,815.430,977.539,-944.824,-1000.000,0.000
1748874954.508,-539.551,-271.484,-28.320,-354.004,0.000
1748874954.512,-1000.000,-1000.000,-1000.000,923.340,0.000
1748874954.516,-179.199,-187.500,-299.805,-898.438,0.000
1748874954.520,-985.840,993.164,950.195,121.094,0.000
1748874954.524,-983.887,-937.500,-913.574,-1000.000,0.000
1748874954.528,-173.340,-5.859,112.305,-564.941,0.000
1748874954.532,-1000.000,-1000.000,-1000.000,818.848,0.000
1748874954.536,-364.746,-308.594,-505.859,-850.098,0.000
1748874954.539,922.363,941.406,852.051,173.828,0.000
1748874954.543,0.000,-897.949,-844.727,-1000.000,0.000
1748874954.547,0.000,211.914,176.758,-963.867,0.000
1748874954.551,0.000,-1000.000,-1000.000,346.680,0.000
1748874954.555,0.000,-458.496,-92.773,-777.832,0.000
1748874954.559,0.000,898.438,-933.105,10.742,0.000
1748874954.563,0.000,-882.324,945.801,-1000.000,0.000
1748874954.567,0.000,214.355,946.777,-1000.000,0.000
1748874954.571,0.000,-1000.000,968.262,-256.836,0.000
1748874954.575,0.000,-616.211,971.191,-827.637,0.000
1748874954.578,0.000,787.109,972.168,100.586,0.000
1748874954.582,0.000,-848.633,972.168,-1000.000,0.000
1748874954.586,0.000,187.012,970.703,-1000.000,0.000
1748874954.590,-1000.000,-1000.000,967.285,-259.766,0.000
1748874954.594,-957.031,-818.359,972.168,-823.242,0.000
1748874954.598,336.914,534.668,968.262,172.852,0.000
1748874954.602,-776.367,-798.340,974.609,-1000.000,0.000
1748874954.606,149.902,234.375,969.727,-1000.000,0.000
1748874954.610,-1000.000,-1000.000,895.996,-264.648,0.000
1748874954.614,-1000.000,-1000.000,910.645,-826.660,0.000
1748874954.618,147.949,169.922,936.035,369.629,0.000
1748874954.621,-758.301,-762.695,961.914,-960.449,0.000
1748874954.625,238.770,303.711,-964.355,-1000.000,0.000
1748874954.629,-993.164,-957.031,-275.391,-250.488,0.000
1748874954.633,-1000.000,-1000.000,-1000.000,-850.098,0.000
1748874954.637,-54.199,-105.957,275.879,548.340,0.000
1748874954.641,-790.527,-806.152,-908.203,-852.539,0.000
1748874954.645,434.082,471.191,946.289,-1000.000,0.000
1748874954.649,-896.973,-882.812,-222.168,-254.883,0.000
1748874954.653,-1000.000,-1000.000,-1000.000,-957.520,0.000
1748874954.657,-233.887,-226.562,-171.387,882.324,0.000
1748874954.660,-885.254,-900.391,-981.445,-427.734,0.000
1748874954.664,689.941,747.070,-963.379,-1000.000,0.000
1748874954.668,-703.613,-629.883,-136.230,-367.676,0.000
1748874954.672,-1000.000,-1000.000,-1000.000,927.246,0.000
1748874954.676,-203.613,-193.359,-183.105,-927.734,0.000
1748874954.680,-935.547,-955.566,-987.793,-85.449,0.000
1748874954.684,866.211,934.082,-954.590,-1000.000,0.000
1748874954.688,-461.914,-346.191,-65.430,-494.141,0.000
1748874954.692,-1000.000,-1000.000,-1000.000,840.820,0.000
1748874954.696,-179.199,-230.957,-344.727,-866.211,0.000
1748874954.700,-983.887,984.863,943.359,154.297,0.000
1748874954.703,-983.887,-948.242,-921.875,-1000.000,0.000
1748874954.707,-173.340,-75.195,-12.207,-714.844,0.000
1748874954.711,-1000.000,-1000.000,-1000.000,667.969,0.000
1748874954.715,-364.746,-403.809,-532.715,-821.777,0.000
1748874954.719,922.363,899.414,830.566,167.480,0.000
1748874954.723,-910.156,-889.160,-867.676,-1000.000,0.000
1748874954.727,17.090,109.375,107.422,-957.031,0.000
1748874954.731,-1000.000,-1000.000,-1000.000,337.402,0.000
1748874954.735,-552.734,-605.957,-744.141,-772.949,0.000
1748874954.739,811.035,773.438,619.629,141.113,0.000
1748874954.743,-852.539,-843.750,-815.918,-1000.000,0.000
1748874954.746,189.453,182.129,156.738,-1000.000,0.000
1748874954.750,-1000.000,-1000.000,-1000.000,27.344,0.000
1748874954.754,-809.082,-866.211,-952.148,-768.066,0.000
1748874954.758,557.129,477.539,324.219,318.848,0.000
1748874954.762,-804.199,-791.504,-772.949,-954.590,0.000
1748874954.766,154.785,148.926,171.387,-1000.000,0.000
1748874954.770,-1000.000,-1000.000,-1000.000,-171.875,0.000
1748874954.774,-1000.000,-1000.000,-1000.000,-826.172,0.000
1748874954.778,0.000,137.207,-98.145,522.949,0.000
1748874954.782,0.000,-758.789,-790.039,-859.863,0.000
1748874954.785,0.000,218.750,279.785,-1000.000,0.000
1748874954.789,0.000,-1000.000,-978.516,-219.238,0.000
1748874954.793,0.000,-1000.000,-1000.000,-913.574,0.000
1748874954.797,0.000,-63.477,-231.445,790.039,0.000
1748874954.801,0.000,-789.062,-831.055,-573.242,0.000
1748874954.805,0.000,410.645,425.781,-1000.000,0.000
1748874954.809,0.000,-911.133,-921.875,-182.617,0.000
1748874954.813,0.000,-1000.000,-1000.000,-978.516,0.000
1748874954.817,0.000,-239.746,-219.238,999.023,0.000
1748874954.821,0.000,-870.117,-931.641,-217.285,0.000
1748874954.825,205.078,631.348,844.238,0.000,0.000
1748874954.828,-764.160,-768.066,-473.145,0.000,0.000
1748874954.832,140.625,-1000.000,-1000.000,0.000,0.000
1748874954.836,-1000.000,-206.055,-185.547,0.000,0.000
1748874954.840,-1000.000,-934.570,-990.234,0.000,0.000
1748874954.844,-22.949,864.258,-968.750,0.000,0.000
1748874954.848,-775.879,-465.820,-143.066,0.000,0.000
1748874954.852,341.797,-1000.000,-1000.000,0.000,0.000
1748874954.856,-948.242,-176.270,-283.203,0.000,0.000
1748874954.860,-1000.000,-988.281,968.262,0.000,0.000
1748874954.864,-183.594,-974.609,-937.500,0.000,0.000
1748874954.867,-833.008,-139.160,-40.039,0.000,0.000
1748874954.871,541.016,-1000.000,-1000.000,666.992,0.000
1748874954.875,-850.586,-369.141,-508.789,-822.754,0.000
1748874954.879,-1000.000,920.898,846.191,174.316,0.000
1748874954.883,-215.332,-905.762,-873.535,-1000.000,0.000
1748874954.887,-921.387,38.574,99.609,-900.879,0.000
1748874954.891,815.430,-1000.000,-1000.000,425.781,0.000
1748874954.895,-540.039,-563.965,-635.742,-784.180,0.000
1748874954.899,-1000.000,803.711,741.699,142.578,0.000
1748874954.903,-179.199,-849.609,-839.355,-1000.000,0.000
1748874954.906,-985.840,185.059,175.781,-1000.000,0.000
1748874954.910,-979.980,-1000.000,-1000.000,46.387,0.000
1748874954.914,-177.246,-855.469,-857.910,-763.672,0.000
1748874954.918,674.316,494.141,478.027,0.000,0.000
1748874954.922,-824.219,-793.457,-790.039,0.000,0.000
1748874954.926,166.992,150.391,184.570,0.000,0.000
1748874954.930,-1000.000,-1000.000,-1000.000,0.000,0.000
1748874954.934,-957.031,-1000.000,-1000.000,0.000,0.000
1748874954.938,336.914,157.227,47.363,0.000,0.000
1748874954.942,-774.414,-759.766,-775.879,0.000,0.000
1748874954.946,142.090,180.176,253.418,0.000,0.000
1748874954.949,-1000.000,-1000.000,-976.074,0.000,0.000
1748874954.953,-1000.000,-1000.000,-1000.000,0.000,0.000
1748874954.957,42.480,-31.738,-228.027,0.000,0.000
1748874954.961,-767.578,-782.715,-823.242,0.000,0.000
1748874954.965,336.914,405.273,343.750,-1000.000,0.000
1748874954.969,-946.777,-916.992,-964.844,-195.801,0.000
1748874954.973,-1000.000,-1000.000,-1000.000,-954.102,0.000
1748874954.977,-148.926,-169.922,-234.375,923.340,0.000
1748874954.981,-823.730,-859.375,-897.949,-359.863,0.000
1748874954.985,535.645,652.832,598.145,-1000.000,0.000
1748874954.988,-847.656,-728.516,-724.121,-277.832,0.000
1748874954.992,-1000.000,-1000.000,-1000.000,983.887,0.000
1748874954.996,-217.773,-201.172,-194.336,-968.262,0.000
1748874955.000,-914.551,-945.312,-979.004,-169.434,0.000
1748874955.004,791.016,897.949,997.559,-1000.000,0.000
1748874955.008,-571.777,-413.574,-224.121,-458.496,0.000
1748874955.012,-1000.000,-1000.000,-1000.000,874.512,0.000
1748874955.016,-191.406,-173.828,-245.605,-890.625,0.000
1748874955.020,-957.520,-991.699,985.352,0.488,0.000
1748874955.024,937.988,-959.473,-951.660,-1000.000,0.000
1748874955.028,-331.055,-112.305,-77.148,-691.895,0.000
1748874955.031,-1000.000,-1000.000,-1000.000,659.180,0.000
1748874955.035,-271.973,-234.375,-495.117,-819.336,0.000
1748874955.039,971.191,975.586,867.188,168.945,0.000
1748874955.043,-942.383,-921.875,-894.043,-1000.000,0.000
1748874955.047,-78.613,79.590,-32.715,-942.871,0.000
1748874955.051,-1000.000,-1000.000,-1000.000,359.863,0.000
1748874955.055,-402.344,-426.270,-605.957,-778.320,0.000
1748874955.059,898.926,895.020,758.301,150.391,0.000
1748874955.063,-889.648,-881.348,-850.586,-1000.000,0.000
1748874955.067,116.699,212.402,104.492,-1000.000,0.000
1748874955.071,-1000.000,-1000.000,-1000.000,153.320,0.000
1748874955.074,-565.430,-663.574,-784.180,-759.766,0.000
1748874955.078,817.871,735.352,570.801,139.648,0.000
1748874955.082,-854.004,-836.426,-807.129,-1000.000,0.000
1748874955.086,186.035,174.805,158.691,-1000.000,0.000
1748874955.090,-1000.000,-1000.000,-1000.000,-61.035,0.000
1748874955.094,-844.727,-915.527,-955.078,-782.227,0.000
1748874955.098,510.254,401.855,312.988,371.582,0.000
1748874955.102,-795.898,-781.250,-773.926,-930.176,0.000
1748874955.106,0.000,145.020,230.957,-1000.000,0.000
1748874955.110,0.000,-1000.000,-998.535,-248.047,0.000
1748874955.113,0.000,-1000.000,-1000.000,-850.586,0.000
1748874955.117,0.000,76.660,-0.488,550.781,0.000
1748874955.121,0.000,-763.672,-784.180,-855.469,0.000
1748874955.125,0.000,303.223,314.941,-1000.000,0.000
1748874955.129,0.000,-960.938,-954.590,-215.332,0.000
1748874955.133,0.000,-1000.000,-1000.000,-920.410,0.000
1748874955.137,0.000,-133.789,-218.750,815.918,0.000
1748874955.141,0.000,-812.988,-846.191,-539.551,0.000
1748874955.145,0.000,487.793,518.066,-1000.000,0.000
1748874955.149,0.000,-875.977,-842.773,-178.711,0.000
1748874955.153,-1000.000,-1000.000,-1000.000,-985.840,0.000
1748874955.157,-233.887,-225.586,-201.660,-982.910,0.000
1748874955.160,-885.254,-898.926,-963.379,-170.898,0.000
1748874955.164,689.941,740.234,949.219,-1000.000,0.000
1748874955.168,-703.613,-638.672,-310.547,-362.793,0.000
1748874955.172,-1000.000,-1000.000,-1000.000,919.922,0.000
1748874955.176,-196.289,-190.918,-187.500,-905.762,0.000
1748874955.180,-955.078,-962.402,-988.770,45.410,0.000
1748874955.184,927.734,952.148,-970.215,-1000.000,0.000
1748874955.188,-366.211,-308.105,-121.582,-556.152,0.000
1748874955.192,-1000.000,-1000.000,-1000.000,813.477,0.000
1748874955.196,-171.387,-258.301,-432.129,-852.051,0.000
1748874955.199,-995.605,972.656,900.391,187.988,0.000
1748874955.203,-957.031,-938.965,-909.668,-1000.000,0.000
1748874955.207,-71.777,-43.945,-47.852,-828.613,0.000
1748874955.211,-1000.000,-1000.000,-1000.000,532.227,0.000
1748874955.215,-366.699,-450.684,-567.383,-799.316,0.000
1748874955.219,917.480,876.465,796.387,152.832,0.000
1748874955.223,-896.973,-878.906,-861.816,-1000.000,0.000
1748874955.227,119.629,123.047,81.055,-1000.000,0.000
1748874955.231,-1000.000,-1000.000,-1000.000,186.035,0.000
1748874955.235,-565.430,-682.617,-754.395,-761.230,0.000
1748874955.239,818.359,694.824,602.051,138.672,0.000
1748874955.242,-853.516,-827.148,-813.477,-1000.000,0.000
1748874955.246,186.523,170.898,148.926,-1000.000,0.000
1748874955.250,-1000.000,-1000.000,-1000.000,-60.059,0.000
1748874955.254,-844.727,-934.570,-957.520,-780.273,0.000
1748874955.258,510.254,372.070,312.500,341.797,0.000
1748874955.262,-795.898,-777.832,-771.484,-945.312,0.000
1748874955.266,149.902,145.020,177.246,-1000.000,0.000
1748874955.270,-1000.000,-1000.000,-1000.000,-250.488,0.000
1748874955.274,-1000.000,-1000.000,-1000.000,-850.098,0.000
1748874955.278,150.879,79.590,-90.332,551.270,0.000
1748874955.281,-758.789,-761.719,-789.551,-855.469,0.000
1748874955.285,194.336,241.211,281.250,-1000.000,0.000
1748874955.289,-1000.000,-991.699,-978.027,-215.332,0.000
1748874955.293,-1000.000,-1000.000,-1000.000,0.000,0.000
1748874955.297,-56.641,-108.398,-226.562,0.000,0.000
1748874955.301,-784.668,-800.293,-830.078,0.000,0.000
1748874955.305,375.488,442.383,427.734,0.000,0.000
1748874955.309,-927.734,-900.391,-920.410,0.000,0.000
1748874955.313,-1000.000,-1000.000,-1000.000,0.000,0.000
1748874955.317,-242.676,-233.887,-217.773,0.000,0.000
1748874955.321,-871.582,-884.766,-934.082,0.000,0.000
1748874955.324,635.742,690.430,847.168,0.000,0.000
1748874955.328,-762.695,-703.613,-461.914,0.000,0.000
1748874955.332,-1000.000,-1000.000,-1000.000,0.000,0.000
1748874955.336,-198.730,-190.430,-189.941,0.000,0.000
1748874955.340,-955.078,-967.773,-993.652,3.906,0.000
1748874955.344,922.852,960.449,-972.656,-1000.000,0.000
1748874955.348,-359.863,-284.180,-122.070,-691.895,0.000
1748874955.352,-1000.000,-1000.000,-1000.000,659.668,0.000
1748874955.356,-251.465,-302.734,-496.582,-808.594,0.000
1748874955.360,-999.023,983.398,889.648,111.328,0.000
1748874955.364,971.191,980.469,-981.934,-973.145,0.000
1748874955.367,936.035,932.617,913.086,-1000.000,0.000
1748874955.371,980.469,982.422,953.613,-380.859,0.000
1748874955.375,971.191,971.680,951.172,271.973,0.000
1748874955.379,971.191,971.680,971.191,-965.820,0.000
1748874955.383,971.191,971.680,944.336,-1000.000,0.000
1748874955.387,971.191,971.680,903.320,-1000.000,0.000
1748874955.391,971.191,971.680,885.742,-285.645,0.000
1748874955.395,970.703,971.680,898.438,-824.707,0.000
1748874955.399,971.191,971.680,913.086,83.496,0.000
1748874955.403,971.191,971.680,878.418,-1000.000,0.000
1748874955.406,971.191,971.680,552.246,-1000.000,0.000
1748874955.410,971.191,971.680,583.008,-268.066,0.000
1748874955.414,970.703,984.863,841.309,-821.777,0.000
1748874955.418,970.703,904.297,887.207,290.527,0.000
1748874955.422,971.191,-935.547,87.402,-994.629,0.000
1748874955.426,971.191,655.273,-1000.000,-1000.000,0.000
1748874955.430,971.191,-936.523,-759.766,-251.465,0.000
1748874955.434,971.680,-633.301,383.789,-866.699,0.000
1748874955.438,892.578,-927.734,76.172,633.301,0.000
1748874955.442,-821.289,500.000,-1000.000,-765.625,0.000
1748874955.446,92.773,-980.957,-1000.000,-1000.000,0.000
1748874955.449,-757.812,-1000.000,-972.168,-200.684,0.000
1748874955.453,701.660,-950.684,-1000.000,-948.242,0.000
1748874955.457,-788.086,-1000.000,-993.164,903.809,0.000
1748874955.461,258.789,-1000.000,-1000.000,-390.137,0.000
1748874955.465,-1000.000,-1000.000,-1000.000,-1000.000,0.000
1748874955.469,-1000.000,-1000.000,-1000.000,-272.461,0.000
1748874955.473,-961.914,-1000.000,-1000.000,972.656,0.000
1748874955.477,-1000.000,-1000.000,-1000.000,-948.242,0.000
1748874955.481,-1000.000,-1000.000,-1000.000,-98.145,0.000
1748874955.485,-1000.000,-1000.000,-1000.000,-1000.000,0.000
1748874955.488,-1000.000,-1000.000,-1000.000,-435.059,0.000
1748874955.492,-950.195,-1000.000,-1000.000,904.297,0.000
1748874955.496,-1000.000,-1000.000,-1000.000,-941.406,0.000
1748874955.500,-280.273,-1000.000,-1000.000,15.625,0.000
1748874955.504,-125.488,-1000.000,-1000.000,-1000.000,0.000
1748874955.508,-1000.000,-1000.000,-1000.000,-540.527,0.000
1748874955.512,-910.156,-928.711,-933.105,831.055,0.000
1748874955.516,-1000.000,-1000.000,-1000.000,-857.910,0.000
1748874955.520,-201.660,-216.797,-278.809,208.984,0.000
1748874955.524,-999.023,-952.148,-925.781,-1000.000,0.000
1748874955.528,-342.773,-271.973,-119.141,-478.516,0.000
1748874955.531,-1000.000,-1000.000,-1000.000,871.094,0.000
1748874955.535,-522.949,-726.562,-838.867,-869.141,0.000
1748874955.539,854.492,624.512,486.328,428.223,0.000
1748874955.543,-975.098,-933.105,-914.062,-869.141,0.000
1748874955.547,913.574,906.250,893.555,-1000.000,0.000
1748874955.551,987.305,985.352,918.945,-224.121,0.000
1748874955.555,971.191,971.680,910.645,-838.867,0.000
1748874955.559,971.191,973.633,948.730,88.867,0.000
1748874955.563,971.191,964.355,940.430,-1000.000,0.000
1748874955.567,971.191,988.770,922.852,-1000.000,0.000
1748874955.571,970.703,924.316,876.953,-263.672,0.000
1748874955.574,971.191,881.348,865.234,-822.266,0.000
1748874955.578,981.934,921.875,909.180,218.750,0.000
1748874955.582,884.277,-979.004,909.180,-1000.000,0.000
1748874955.586,-818.848,832.031,945.312,-1000.000,0.000
1748874955.590,281.738,-459.473,476.562,-262.695,0.000
1748874955.594,-456.055,-1000.000,-276.855,-842.285,0.000
1748874955.598,845.215,-627.441,238.281,520.020,0.000
1748874955.602,-880.859,937.500,994.629,-875.488,0.000
1748874955.606,704.590,275.391,516.113,-1000.000,0.000
1748874955.610,-647.949,-1000.000,-648.438,-182.129,0.000
1748874955.613,-1000.000,-900.391,-972.656,995.117,0.000
1748874955.617,-1000.000,-1000.000,-1000.000,-944.824,0.000
1748874955.621,-249.023,-212.402,-413.574,-70.801,0.000
1748874955.625,-886.230,-972.168,-930.176,-1000.000,0.000
1748874955.629,-235.352,-393.555,-73.242,-160.156,0.000
1748874955.633,-1000.000,-1000.000,-1000.000,-985.840,0.000
1748874955.637,-930.664,-927.734,-939.941,-996.094,0.000
1748874955.641,-1000.000,-1000.000,-992.676,896.973,0.000
1748874955.645,-1000.000,-1000.000,-1000.000,382.324,0.000
1748874955.649,-1000.000,-1000.000,-1000.000,823.730,0.000
1748874955.653,-1000.000,-1000.000,-1000.000,980.957,0.000
1748874955.656,-1000.000,-1000.000,-1000.000,-951.172,0.000
1748874955.660,-1000.000,-1000.000,-1000.000,633.789,0.000
1748874955.664,-1000.000,-1000.000,-1000.000,-1000.000,0.000
1748874955.668,0.000,-1000.000,-1000.000,-230.957,0.000
1748874955.672,0.000,-1000.000,-1000.000,-966.797,0.000
1748874955.676,0.000,-1000.000,-1000.000,-942.383,0.000
1748874955.680,0.000,-1000.000,-1000.000,497.559,0.000
1748874955.684,0.000,-1000.000,-1000.000,-1000.000,0.000
1748874955.688,0.000,-1000.000,-1000.000,-435.547,0.000
1748874955.692,0.000,-1000.000,-983.887,941.406,0.000
1748874955.696,0.000,-1000.000,-1000.000,-898.926,0.000
1748874955.699,0.000,-1000.000,-917.969,397.949,0.000
1748874955.703,0.000,-1000.000,-696.289,-998.535,0.000
1748874955.707,0.000,-1000.000,-917.480,-973.145,0.000
1748874955.711,0.000,-1000.000,-980.957,358.887,0.000
1748874955.715,-1000.000,-1000.000,-1000.000,-780.273,0.000
1748874955.719,-897.949,-1000.000,-806.641,339.355,0.000
1748874955.723,210.449,-1000.000,420.410,-925.293,0.000
1748874955.727,-520.996,-1000.000,-17.578,-1000.000,0.000
1748874955.731,-1000.000,-991.211,-1000.000,-153.320,0.000
1748874955.735,-1000.000,-960.938,-1000.000,-807.617,0.000
1748874955.738,-776.855,-1000.000,-497.070,356.934,0.000
1748874955.742,887.207,20.996,734.863,-952.637,0.000
1748874955.746,254.395,93.262,459.961,-1000.000,0.000
1748874955.750,-1000.000,-1000.000,-689.941,-250.488,0.000
1748874955.754,-1000.000,-980.469,-1000.000,-845.215,0.000
1748874955.758,-485.840,-1000.000,-233.887,509.277,0.000
1748874955.762,-916.992,453.125,848.633,-877.930,0.000
1748874955.766,405.273,438.965,852.051,-1000.000,0.000
1748874955.770,-986.816,-1000.000,-171.387,-261.230,0.000
1748874955.774,-1000.000,-1000.000,-1000.000,-934.082,0.000
1748874955.778,-336.426,-1000.000,-102.539,813.477,0.000
1748874955.781,991.211,428.223,849.121,-533.203,0.000
1748874955.785,853.516,751.953,952.148,-1000.000,0.000
1748874955.789,-514.648,-850.098,65.918,-361.816,0.000
1748874955.793,-1000.000,-1000.000,-1000.000,928.223,0.000
1748874955.797,-457.031,-1000.000,-321.289,-930.176,0.000
1748874955.801,869.141,77.637,782.715,-94.238,0.000
1748874955.805,-897.949,-993.164,970.215,-1000.000,0.000
1748874955.809,-41.504,-518.066,229.004,-451.172,0.000
1748874955.813,-1000.000,-1000.000,-959.473,862.793,0.000
1748874955.817,-431.641,-1000.000,-476.562,-869.141,0.000
1748874955.820,878.418,-100.098,719.727,176.270,0.000
1748874955.824,-876.953,-858.398,927.246,-1000.000,0.000
1748874955.828,215.820,-212.402,296.387,-597.656,0.000
1748874955.832,-1000.000,-1000.000,-762.207,746.094,0.000
1748874955.836,-562.988,-1000.000,-567.383,-841.797,0.000
1748874955.840,836.914,-248.535,592.285,187.500,0.000
1748874955.844,-861.816,-862.793,957.031,-1000.000,0.000
1748874955.848,202.148,-103.516,485.840,-815.430,0.000
1748874955.852,-1000.000,-1000.000,-602.051,548.828,0.000
1748874955.856,-660.156,-1000.000,-661.621,-805.176,0.000
1748874955.860,717.285,-333.984,507.324,165.039,0.000
1748874955.863,-840.332,-853.027,958.496,-1000.000,0.000
1748874955.867,392.578,99.121,610.840,-945.801,0.000
1748874955.871,-1000.000,-1000.000,-429.688,326.172,0.000
1748874955.875,-823.242,-1000.000,-777.344,-780.273,0.000
1748874955.879,577.148,-370.117,375.488,395.508,0.000
1748874955.883,-857.910,-865.234,948.242,-935.547,0.000
1748874955.887,682.129,192.871,669.434,-1000.000,0.000
1748874955.891,-896.973,-1000.000,-199.707,110.352,0.000
1748874955.895,-493.652,-1000.000,-458.496,-822.754,0.000
1748874955.899,-973.633,-329.102,479.980,662.109,0.000
1748874955.903,0.000,-848.145,0.000,-698.242,0.000
1748874955.906,0.000,461.426,0.000,-1000.000,0.000
1748874955.910,0.000,-627.930,0.000,14.648,0.000
1748874955.914,0.000,490.234,0.000,-922.852,0.000
1748874955.918,0.000,-896.973,0.000,943.848,0.000
1748874955.922,0.000,922.852,0.000,-270.996,0.000
1748874955.926,0.000,841.797,0.000,-1000.000,0.000
1748874955.930,0.000,881.836,0.000,-166.992,0.000
1748874955.934,0.000,997.559,0.000,997.070,0.000
1748874955.938,0.000,962.402,0.000,-931.641,0.000
1748874955.942,0.000,973.633,0.000,0.000,0.000
1748874955.945,0.000,971.680,0.000,-1000.000,0.000
1748874955.949,384.277,972.168,-46.875,-172.363,0.000
1748874955.953,-866.211,971.680,805.664,990.723,0.000
1748874955.957,899.902,971.680,840.820,-908.691,0.000
1748874955.961,996.582,971.680,598.633,225.098,0.000
1748874955.965,620.117,971.680,24.414,-1000.000,0.000
1748874955.969,806.641,971.680,163.574,-201.660,0.000
1748874955.973,-964.355,971.680,833.008,-992.676,0.000
1748874955.977,942.871,971.680,870.605,-916.992,0.000
1748874955.981,979.980,971.680,695.801,229.980,0.000
1748874955.985,971.191,971.680,326.172,-1000.000,0.000
1748874955.988,971.191,971.680,399.414,-263.184,0.000
1748874955.992,970.703,971.680,828.613,978.027,0.000
1748874955.996,970.703,971.680,879.883,-912.109,0.000
1748874956.000,971.191,971.680,822.754,331.055,0.000
1748874956.004,971.191,971.680,573.730,-1000.000,0.000
1748874956.008,971.191,971.680,532.227,-449.219,0.000
1748874956.012,971.191,971.680,817.383,904.785,0.000
1748874956.016,970.703,971.191,877.441,-893.066,0.000
1748874956.020,971.191,971.191,853.027,445.801,0.000
1748874956.024,971.191,971.680,642.578,-1000.000,0.000
1748874956.027,971.191,971.680,509.277,-758.301,0.000
1748874956.031,971.191,971.680,752.930,667.969,0.000
1748874956.035,970.703,971.680,869.141,-831.543,0.000
1748874956.039,970.703,971.680,819.824,444.336,0.000
1748874956.043,971.191,971.680,537.109,-896.484,0.000
1748874956.047,971.191,971.680,356.934,-1000.000,0.000
1748874956.051,970.703,971.680,667.969,68.359,0.000
1748874956.055,971.191,971.191,873.047,-781.250,0.000
1748874956.059,970.703,971.680,793.457,424.316,0.000
1748874956.063,970.703,971.680,431.152,-889.648,0.000
1748874956.067,971.191,971.680,244.629,-1000.000,0.000
1748874956.070,971.191,971.680,636.230,-243.164,0.000
1748874956.074,971.191,971.680,873.047,-850.098,0.000
1748874956.078,971.191,971.680,879.883,532.715,0.000
1748874956.082,970.703,971.680,465.332,-867.188,0.000
1748874956.086,971.191,971.680,-14.160,-1000.000,0.000
1748874956.090,985.352,974.121,508.301,-236.816,0.000
1748874956.094,891.113,959.473,897.949,-855.469,0.000
1748874956.098,-877.441,948.730,903.320,542.969,0.000
1748874956.102,514.648,-908.203,400.879,-835.938,0.000
1748874956.106,-1000.000,66.895,-465.332,-1000.000,0.000
1748874956.110,94.238,80.566,189.941,-595.215,0.000
1748874956.113,-905.762,-901.367,912.598,952.637,0.000
1748874956.117,-963.867,946.289,923.828,696.289,0.000
1748874956.121,250.000,970.703,271.973,-802.734,0.000
1748874956.125,-1000.000,877.441,-862.305,-1000.000,0.000
1748874956.129,-222.656,906.250,-116.211,-909.668,0.000
1748874956.133,-960.449,990.234,885.254,498.047,0.000
1748874956.137,-966.797,964.844,948.242,942.871,0.000
1748874956.141,-103.027,973.145,105.469,-613.281,0.000
1748874956.145,-1000.000,971.680,-1000.000,-1000.000,0.000
1748874956.149,-953.613,971.680,-596.191,-1000.000,0.000
1748874956.152,511.719,972.656,635.254,157.715,0.000
1748874956.156,832.520,966.797,982.910,-781.738,0.000
1748874956.160,-800.781,985.352,-26.855,-60.547,0.000
1748874956.164,-997.559,924.316,-1000.000,-1000.000,0.000
1748874956.168,-1000.000,900.879,-851.562,-1000.000,0.000
1748874956.172,-112.793,987.305,327.637,138.672,0.000
1748874956.176,615.723,896.484,-966.797,-757.324,0.000
1748874956.180,-937.500,-830.566,0.488,147.949,0.000
1748874956.184,0.000,229.980,-1000.000,-1000.000,0.000
1748874956.188,0.000,-323.242,-927.246,-1000.000,0.000
1748874956.192,0.000,980.469,151.367,68.359,0.000
1748874956.195,0.000,942.383,-925.781,-764.648,0.000
1748874956.199,0.000,-883.301,173.340,171.875,0.000
1748874956.203,0.000,132.812,-1000.000,-1000.000,0.000
1748874956.207,0.000,-895.996,-928.711,-1000.000,0.000
1748874956.211,0.000,587.891,249.512,-96.680,0.000
1748874956.215,0.000,-968.750,-972.168,-792.969,0.000
1748874956.219,0.000,-951.660,594.727,405.762,0.000
1748874956.223,0.000,253.418,-599.609,-921.387,0.000
1748874956.227,0.000,-1000.000,-944.336,-1000.000,0.000
1748874956.231,-990.723,-80.078,361.328,-209.961,0.000
1748874956.234,-1000.000,-959.473,-937.012,-845.215,0.000
1748874956.238,-567.871,-947.754,546.875,558.594,0.000
1748874956.242,460.449,174.316,-556.152,-839.355,0.000
1748874956.246,-764.648,-1000.000,-1000.000,-1000.000,0.000
1748874956.250,-1000.000,-480.957,-134.277,-209.961,0.000
1748874956.254,-1000.000,857.422,-993.164,-934.570,0.000
1748874956.258,-768.555,-873.535,484.375,859.375,0.000
1748874956.262,752.930,190.918,-642.090,-472.168,0.000
1748874956.266,-181.641,-1000.000,-1000.000,-1000.000,0.000
1748874956.270,-1000.000,-583.984,-271.484,-175.781,0.000
1748874956.273,-1000.000,764.648,918.457,-989.746,0.000
1748874956.277,845.215,-856.445,0.000,0.000,0.000
1748874956.281,-644.043,411.621,0.000,0.000,0.000
1748874956.285,-1000.000,-995.117,0.000,0.000,0.000
1748874956.289,-1000.000,-910.645,0.000,0.000,0.000
1748874956.293,195.312,453.125,0.000,0.000,0.000
1748874956.297,924.805,-869.629,0.000,0.000,0.000
1748874956.301,-701.172,717.773,0.000,0.000,0.000
1748874956.305,-1000.000,-532.715,0.000,0.000,0.000
1748874956.309,-1000.000,-1000.000,0.000,0.000,0.000
1748874956.313,-928.711,-252.930,0.000,0.000,0.000
1748874956.316,232.910,938.477,0.000,0.000,0.000
1748874956.320,-444.824,-897.949,0.000,0.000,0.000
1748874956.324,-1000.000,78.125,-1000.000,-1000.000,0.000
1748874956.328,-854.004,-1000.000,-845.703,-431.152,0.000
1748874956.332,-1000.000,-1000.000,392.090,914.551,0.000
1748874956.336,-449.219,-196.289,945.801,-888.672,0.000
1748874956.340,910.645,983.398,630.859,218.750,0.000
1748874956.344,-890.625,-917.480,-981.934,-1000.000,0.000
1748874956.348,3.418,145.996,250.977,-576.660,0.000
1748874956.352,-1000.000,-1000.000,-1000.000,823.242,0.000
1748874956.356,-174.805,-271.484,-223.633,-854.492,0.000
1748874956.359,991.699,973.145,994.141,240.234,0.000
1748874956.363,-921.875,-911.621,-921.875,-1000.000,0.000
1748874956.367,237.305,231.445,234.863,-858.887,0.000
1748874956.371,-1000.000,-1000.000,-1000.000,482.422,0.000
1748874956.375,-491.699,-525.879,-552.246,-792.969,0.000
1748874956.379,882.324,861.328,839.844,338.867,0.000
1748874956.383,-876.953,-867.676,-861.816,-953.613,0.000
1748874956.387,204.590,193.848,225.098,-1000.000,0.000
1748874956.391,-1000.000,-1000.000,-1000.000,56.641,0.000
1748874956.395,-719.238,-813.477,-771.484,-779.785,0.000
1748874956.398,674.316,551.758,600.098,430.664,0.000
1748874956.402,-824.219,-801.758,-811.035,-898.438,0.000
1748874956.406,166.992,152.344,259.766,-1000.000,0.000
1748874956.410,-1000.000,-1000.000,-1000.000,-133.301,0.000
1748874956.414,-952.148,-1000.000,-1000.000,-852.539,0.000
1748874956.418,0.000,164.551,0.000,653.809,0.000
1748874956.422,0.000,-760.742,0.000,-719.238,0.000
1748874956.426,0.000,290.039,0.000,-1000.000,0.000
1748874956.430,0.000,-972.168,0.000,-202.637,0.000
1748874956.434,0.000,-1000.000,0.000,-938.965,0.000
1748874956.438,0.000,-41.016,0.000,878.906,0.000
1748874956.441,0.000,-793.457,0.000,-442.871,0.000
1748874956.445,0.000,461.914,0.000,-1000.000,0.000
1748874956.449,0.000,-878.418,0.000,-165.527,0.000
1748874956.453,0.000,-1000.000,0.000,993.164,0.000
1748874956.457,0.000,-220.215,0.000,-945.312,0.000
1748874956.461,0.000,-919.434,0.000,6.836,0.000
1748874956.465,778.320,815.918,-993.164,-1000.000,0.000
1748874956.469,-561.523,-539.551,-216.309,-467.285,0.000
1748874956.473,-1000.000,-1000.000,-1000.000,879.883,0.000
1748874956.477,-193.848,-185.059,-186.523,-883.789,0.000
1748874956.481,-952.148,-970.215,-989.258,68.848,0.000
1748874956.484,928.223,977.051,-966.309,-1000.000,0.000
1748874956.488,-366.211,-256.836,-98.145,-664.062,0.000
1748874956.492,-1000.000,-1000.000,-1000.000,703.613,0.000
1748874956.496,-171.387,-287.598,-476.562,-829.102,0.000
1748874956.500,-996.094,964.355,876.953,172.852,0.000
1748874956.504,-953.125,-933.594,-900.391,-1000.000,0.000
1748874956.508,-75.684,-53.711,-44.922,-922.363,0.000
1748874956.512,-1000.000,-1000.000,-1000.000,391.113,0.000
1748874956.516,-276.855,-401.855,-520.996,-781.738,0.000
1748874956.520,969.727,907.715,844.727,150.391,0.000
1748874956.524,-925.781,-895.508,-875.977,-1000.000,0.000
1748874956.527,24.902,77.637,54.199,-1000.000,0.000
1748874956.531,-1000.000,-1000.000,-1000.000,154.297,0.000
1748874956.535,-464.355,-608.398,-717.285,-759.277,0.000
1748874956.539,867.676,764.160,648.438,139.648,0.000
1748874956.543,-872.070,-842.285,-827.148,-1000.000,0.000
1748874956.547,204.590,182.617,111.328,-1000.000,0.000
1748874956.551,-1000.000,-1000.000,-1000.000,-60.059,0.000
1748874956.555,-719.238,-859.863,-917.480,-779.785,0.000
1748874956.559,674.316,487.793,379.395,342.285,0.000
1748874956.563,-824.707,-792.969,-778.809,-945.312,0.000
1748874956.566,166.992,149.902,129.395,-1000.000,0.000
1748874956.570,-1000.000,-1000.000,-1000.000,-250.488,0.000
1748874956.574,-957.031,-1000.000,-1000.000,-850.098,0.000
1748874956.578,336.914,152.832,-33.691,551.270,0.000
1748874956.582,-771.973,-757.812,-780.273,-855.469,0.000
1748874956.586,134.766,160.645,224.121,-1000.000,0.000
1748874956.590,-1000.000,-1000.000,-993.164,-192.871,0.000
1748874956.594,-1000.000,-1000.000,-1000.000,-979.004,0.000
1748874956.598,18.555,-67.871,-171.387,995.605,0.000
1748874956.602,-991.211,-997.559,972.656,-304.199,0.000
1748874956.606,-912.109,-923.340,-918.457,-1000.000,0.000
1748874956.609,308.594,240.723,310.059,-936.035,0.000
1748874956.613,-1000.000,-1000.000,-1000.000,-1000.000,0.000
1748874956.617,88.867,-202.637,-260.254,-1000.000,0.000
1748874956.621,-925.293,-991.699,984.375,-1000.000,0.000
1748874956.625,-955.078,-922.852,-955.566,-1000.000,0.000
1748874956.629,247.070,235.352,215.820,-1000.000,0.000
1748874956.633,-1000.000,-1000.000,-1000.000,-1000.000,0.000
1748874956.637,-222.168,-417.969,-826.660,-1000.000,0.000
1748874956.641,-960.938,954.102,539.062,-925.781,0.000
1748874956.645,-959.961,-917.480,-889.160,-1000.000,0.000
1748874956.648,-75.684,-38.086,-64.453,-596.191,0.000
1748874956.652,0.000,-1000.000,0.000,0.000,0.000
1748874956.656,0.000,-365.234,0.000,0.000,0.000
1748874956.660,0.000,980.957,0.000,0.000,0.000
1748874956.664,0.000,-980.469,0.000,0.000,0.000
1748874956.668,0.000,-226.074,0.000,0.000,0.000
1748874956.672,0.000,-1000.000,0.000,0.000,0.000
1748874956.676,0.000,-411.621,0.000,0.000,0.000
1748874956.680,0.000,909.668,0.000,0.000,0.000
1748874956.684,0.000,-916.504,0.000,0.000,0.000
1748874956.688,0.000,-71.289,0.000,0.000,0.000
1748874956.691,0.000,-1000.000,0.000,0.000,0.000
1748874956.695,0.000,-524.902,0.000,0.000,0.000
1748874956.699,869.141,830.078,739.746,245.117,0.000
1748874956.703,-878.418,-863.770,-850.586,-1000.000,0.000
1748874956.707,108.398,93.750,56.152,-1000.000,0.000
1748874956.711,-1000.000,-1000.000,-1000.000,71.777,0.000
1748874956.715,-624.512,-755.371,-790.039,-774.902,0.000
1748874956.719,753.906,601.074,551.758,425.293,0.000
1748874956.723,-838.379,-808.594,-802.246,-892.578,0.000
1748874956.727,170.410,157.227,141.602,-1000.000,0.000
1748874956.731,-1000.000,-1000.000,-1000.000,-187.988,0.000
1748874956.734,-957.031,-1000.000,-1000.000,-872.559,0.000
1748874956.738,336.914,218.750,184.082,684.082,0.000
1748874956.742,-776.855,-765.625,-765.137,-700.195,0.000
1748874956.746,149.902,144.043,185.059,-1000.000,0.000
1748874956.750,-1000.000,-1000.000,-1000.000,-202.637,0.000
1748874956.754,-1000.000,-1000.000,-1000.000,-936.523,0.000
1748874956.758,148.926,31.250,-106.445,870.605,0.000
1748874956.762,-758.789,-765.625,-791.992,-455.078,0.000
1748874956.766,223.633,242.188,291.992,-1000.000,0.000
1748874956.770,-998.535,-989.746,-975.098,-178.711,0.000
1748874956.773,-1000.000,-1000.000,-1000.000,-982.910,0.000
1748874956.777,-54.688,-156.250,-222.168,-979.004,0.000
1748874956.781,-786.133,-808.594,-832.520,-176.758,0.000
1748874956.785,385.254,439.453,450.195,-1000.000,0.000
1748874956.789,-922.852,-908.691,-903.320,-268.066,0.000
1748874956.793,-1000.000,-1000.000,-1000.000,964.844,0.000
1748874956.797,-247.070,-236.328,-216.797,-924.316,0.000
1748874956.801,-852.051,-878.906,-935.059,25.391,0.000
1748874956.805,550.781,666.992,861.328,-1000.000,0.000
1748874956.809,-855.469,-729.492,-456.543,-463.867,0.000
1748874956.813,-1000.000,-1000.000,-1000.000,867.676,0.000
1748874956.816,-215.820,-199.707,-177.734,-871.582,0.000
1748874956.820,-921.387,-947.754,-986.816,205.078,0.000
1748874956.824,815.430,905.273,-969.727,-1000.000,0.000
1748874956.828,-539.551,-397.949,-150.391,-719.238,0.000
1748874956.832,-1000.000,-1000.000,-1000.000,674.805,0.000
1748874956.836,-179.199,-202.148,-238.770,-824.219,0.000
1748874956.840,-985.840,997.559,988.281,168.945,0.000
1748874956.844,-980.957,-958.496,-947.266,-1000.000,0.000
1748874956.848,-176.270,-98.633,-47.852,-942.383,0.000
1748874956.852,-1000.000,-1000.000,-1000.000,360.352,0.000
1748874956.856,-297.363,-373.047,-481.445,-776.855,0.000
1748874956.859,951.172,916.504,863.770,145.020,0.000
1748874956.863,-919.922,-898.926,-882.324,-1000.000,0.000
1748874956.867,22.461,88.867,73.242,-1000.000,0.000
1748874956.871,-1000.000,-1000.000,-1000.000,74.707,0.000
1748874956.875,-464.355,-561.523,-604.492,-765.625,0.000
1748874956.879,867.188,816.895,768.066,339.844,0.000
1748874956.883,-872.070,-853.027,-846.191,-953.125,0.000
1748874956.887,205.078,188.477,178.711,-1000.000,0.000
1748874956.891,-1000.000,-1000.000,-1000.000,-71.289,0.000
1748874956.895,-719.238,-824.219,-780.273,-808.594,0.000
1748874956.898,674.316,537.598,587.402,526.855,0.000
1748874956.902,-824.707,-800.293,-810.059,-842.285,0.000
1748874956.906,166.992,154.297,194.336,-1000.000,0.000
1748874956.910,-1000.000,-1000.000,-1000.000,-216.309,0.000
1748874956.914,-957.031,-1000.000,-952.637,-917.480,0.000
1748874956.918,336.914,197.754,324.707,804.688,0.000
1748874956.922,-774.414,-761.719,-775.391,-554.688,0.000
1748874956.926,142.090,222.168,263.672,-1000.000,0.000
1748874956.930,-1000.000,-1000.000,-974.609,-184.082,0.000
1748874956.934,-1000.000,-1000.000,-1000.000,-974.121,0.000
1748874956.938,42.480,-15.625,-61.523,992.188,0.000
1748874956.941,-767.578,-783.203,-797.852,-246.094,0.000
1748874956.945,336.914,417.480,407.227,-1000.000,0.000
1748874956.949,-946.777,-907.227,-913.574,-169.922,0.000
1748874956.953,-1000.000,-1000.000,-1000.000,-998.047,0.000
1748874956.957,-148.926,-180.664,-187.012,-946.289,0.000
1748874956.961,-824.219,-866.699,-925.781,-13.672,0.000
1748874956.965,535.645,669.922,855.469,-1000.000,0.000
1748874956.969,-847.656,-712.891,-456.543,-382.812,0.000
1748874956.973,-1000.000,-1000.000,-1000.000,916.504,0.000
1748874956.977,-215.820,-196.777,-179.688,-894.531,0.000
1748874956.980,-921.387,-954.102,-982.910,110.352,0.000
1748874956.984,815.430,928.223,-979.004,-1000.000,0.000
1748874956.988,-540.039,-366.211,-178.223,-704.590,0.000
1748874956.992,-1000.000,-1000.000,-1000.000,666.992,0.000
1748874956.996,-179.199,-172.852,-211.426,-818.359,0.000
1748874957.000,-986.328,-992.188,-996.582,155.273,0.000
1748874957.004,-979.492,-957.031,-959.961,-1000.000,0.000
1748874957.008,-178.711,-99.609,-92.285,-1000.000,0.000
1748874957.012,-1000.000,-1000.000,-1000.000,184.082,0.000
1748874957.016,-260.254,-248.047,-436.523,-761.719,0.000
1748874957.020,981.934,978.516,904.297,138.672,0.000
1748874957.023,-944.336,-928.711,-937.500,-1000.000,0.000
1748874957.027,-78.125,27.344,-83.984,-1000.000,0.000
1748874957.031,-1000.000,-1000.000,-1000.000,-49.805,0.000
1748874957.035,-382.812,-452.148,-569.336,-779.297,0.000
1748874957.039,908.691,876.953,804.688,151.367,0.000
1748874957.043,-893.555,-876.465,-909.180,-1000.000,0.000
1748874957.047,114.746,179.688,-27.832,-1000.000,0.000
1748874957.051,-1000.000,-1000.000,-1000.000,-159.668,0.000
1748874957.055,-620.605,-715.332,-647.461,-796.387,0.000
1748874957.059,757.812,672.852,717.285,271.973,0.000
1748874957.062,-841.797,-822.754,-843.262,-988.281,0.000
1748874957.066,180.664,167.480,117.188,-1000.000,0.000
1748874957.070,-1000.000,-1000.000,-1000.000,-256.836,0.000
1748874957.074,-874.023,-958.008,-437.500,-847.168,0.000
1748874957.078,535.645,406.738,875.488,551.758,0.000
1748874957.082,-992.676,-978.027,958.984,-918.457,0.000
1748874957.086,-956.543,-961.914,805.664,-1000.000,0.000
1748874957.090,363.281,377.441,955.078,-942.383,0.000
1748874957.094,-1000.000,-1000.000,984.863,-1000.000,0.000
1748874957.098,-238.281,-358.398,934.082,-1000.000,0.000
1748874957.102,-953.125,994.141,821.289,-1000.000,0.000
1748874957.105,-956.055,-922.363,843.750,-1000.000,0.000
1748874957.109,-143.066,-80.078,391.602,-1000.000,0.000
1748874957.113,-1000.000,-1000.000,653.320,-1000.000,0.000
1748874957.117,-1000.000,-1000.000,306.641,-1000.000,0.000
1748874957.121,-94.238,-112.793,-1000.000,-1000.000,0.000
1748874957.125,638.184,909.668,-959.473,-1000.000,0.000
1748874957.129,-922.852,-609.863,-1000.000,-1000.000,0.000
1748874957.133,-1000.000,-1000.000,-151.367,-1000.000,0.000
1748874957.137,-1000.000,-1000.000,37.598,-1000.000,0.000
1748874957.141,-599.609,-401.855,-1000.000,-1000.000,0.000
1748874957.145,-55.664,473.633,-927.246,-1000.000,0.000
1748874957.148,-1000.000,-881.836,-1000.000,-1000.000,0.000
1748874957.152,-1000.000,-1000.000,-132.812,-1000.000,0.000
1748874957.156,-1000.000,-1000.000,229.004,-1000.000,0.000
1748874957.160,-903.320,-892.090,-1000.000,-1000.000,0.000
1748874957.164,-337.402,-32.715,-954.590,-1000.000,0.000
1748874957.168,0.000,-714.844,0.000,0.000,0.000
1748874957.172,0.000,-1000.000,0.000,0.000,0.000
1748874957.176,0.000,-939.453,0.000,0.000,0.000
1748874957.180,0.000,-1000.000,0.000,0.000,0.000
1748874957.184,0.000,-127.930,0.000,0.000,0.000
1748874957.187,0.000,-381.836,0.000,0.000,0.000
1748874957.191,0.000,-1000.000,0.000,0.000,0.000
1748874957.195,0.000,-943.359,0.000,0.000,0.000
1748874957.199,0.000,-1000.000,0.000,0.000,0.000
1748874957.203,0.000,-778.320,0.000,0.000,0.000
1748874957.207,0.000,-812.988,0.000,0.000,0.000
1748874957.211,0.000,-1000.000,0.000,0.000,0.000
1748874957.215,-904.785,-987.793,-930.176,-372.559,0.000
1748874957.219,-1000.000,-1000.000,-121.582,882.812,0.000
1748874957.223,-121.582,-1000.000,-1000.000,-920.410,0.000
1748874957.227,-45.898,-1000.000,-1000.000,709.473,0.000
1748874957.230,-1000.000,-1000.000,-289.551,-890.625,0.000
1748874957.234,-973.145,-1000.000,-929.688,-452.148,0.000
1748874957.238,-988.281,-1000.000,-105.469,-951.172,0.000
1748874957.242,-1000.000,-1000.000,-1000.000,887.695,0.000
1748874957.246,-1000.000,-1000.000,-1000.000,-854.492,0.000
1748874957.250,-1000.000,-1000.000,-681.152,80.566,0.000
1748874957.254,-1000.000,-1000.000,791.016,-656.738,0.000
1748874957.258,-1000.000,-1000.000,-36.133,891.602,0.000
1748874957.262,-1000.000,-1000.000,-1000.000,966.797,0.000
1748874957.266,-1000.000,-1000.000,-957.031,-884.277,0.000
1748874957.270,-1000.000,-1000.000,-986.816,201.660,0.000
1748874957.273,-1000.000,-1000.000,-251.953,-745.605,0.000
1748874957.277,-1000.000,-1000.000,-418.945,745.117,0.000
1748874957.281,-1000.000,-1000.000,-1000.000,-980.469,0.000
1748874957.285,-1000.000,-1000.000,-961.426,-958.008,0.000
1748874957.289,-1000.000,-1000.000,-1000.000,262.695,0.000
1748874957.293,-1000.000,-1000.000,-734.375,-1000.000,0.000
1748874957.297,-1000.000,-1000.000,-658.203,-134.277,0.000
1748874957.301,-1000.000,-1000.000,-1000.000,-974.609,0.000
1748874957.305,-1000.000,-1000.000,-944.336,-922.852,0.000
1748874957.309,-1000.000,-1000.000,-1000.000,230.957,0.000
1748874957.312,-1000.000,-1000.000,-192.871,-1000.000,0.000
1748874957.316,-1000.000,-1000.000,137.695,-191.406,0.000
1748874957.320,-1000.000,-1000.000,-1000.000,996.582,0.000
1748874957.324,-1000.000,-1000.000,-992.676,-916.992,0.000
1748874957.328,-1000.000,-1000.000,-1000.000,446.777,0.000
1748874957.332,-1000.000,-1000.000,7.324,-1000.000,0.000
1748874957.336,-1000.000,-1000.000,669.434,-235.840,0.000
1748874957.340,-1000.000,-1000.000,-592.773,-933.594,0.000
1748874957.344,-1000.000,-1000.000,-1000.000,915.039,0.000
1748874957.348,-985.352,-1000.000,-1000.000,-902.344,0.000
1748874957.351,-1000.000,-986.816,-167.969,-278.809,0.000
1748874957.355,-996.582,-1000.000,-975.098,-351.562,0.000
1748874957.359,-701.660,-875.977,-130.859,-902.832,0.000
1748874957.363,-895.996,-795.898,-1000.000,899.902,0.000
1748874957.367,-1000.000,-1000.000,-1000.000,-858.398,0.000
1748874957.371,-937.500,-937.500,-238.281,4.395,0.000
1748874957.375,-1000.000,-1000.000,-945.312,-304.199,0.000
1748874957.379,141.602,-441.406,-46.875,-932.129,0.000
1748874957.383,250.488,67.383,-1000.000,911.621,0.000
1748874957.387,-1000.000,-1000.000,-1000.000,-855.469,0.000
1748874957.391,-1000.000,-978.516,-323.242,56.641,0.000
1748874957.394,-782.227,-1000.000,-939.941,-349.609,0.000
1748874957.398,796.875,-267.578,178.223,-948.242,0.000
1748874957.402,745.605,-855.469,-1000.000,907.227,0.000
1748874957.406,-789.062,-14.160,-1000.000,-861.328,0.000
1748874957.410,-1000.000,-1000.000,-621.582,321.777,0.000
1748874957.414,-156.250,-1000.000,777.344,-388.184,0.000
1748874957.418,963.867,-8.789,542.480,934.570,0.000
1748874957.422,-922.363,-776.855,-735.840,963.867,0.000
1748874957.426,233.398,363.770,-1000.000,-909.180,0.000
1748874957.430,-1000.000,-920.410,-905.762,244.141,0.000
1748874957.434,-654.785,-1000.000,347.656,-1000.000,0.000
1748874957.437,777.344,-236.328,246.094,327.148,0.000
1748874957.441,-850.586,-831.055,-1000.000,-929.688,0.000
1748874957.445,-85.938,173.828,-1000.000,-964.355,0.000
1748874957.449,-1000.000,-1000.000,-982.422,258.301,0.000
1748874957.453,-1000.000,-977.539,-865.723,-1000.000,0.000
1748874957.457,-746.582,-973.145,-849.609,-224.121,0.000
1748874957.461,-310.059,-1000.000,-1000.000,-938.477,0.000
1748874957.465,-978.027,-1000.000,-998.047,939.941,0.000
1748874957.469,-979.004,-1000.000,-997.559,-52.734,0.000
1748874957.473,-1000.000,-1000.000,-1000.000,-1000.000,0.000
1748874957.477,-753.906,-1000.000,-1000.000,-183.594,0.000
1748874957.480,871.094,-1000.000,-1000.000,985.352,0.000
1748874957.484,131.348,-1000.000,-1000.000,-920.898,0.000
1748874957.488,-1000.000,-999.023,-1000.000,503.906,0.000
1748874957.492,-1000.000,-940.430,-1000.000,-1000.000,0.000
1748874957.496,119.629,-1000.000,-1000.000,-236.328,0.000
1748874957.500,-899.414,-247.070,-1000.000,-981.934,0.000
1748874957.504,915.527,-810.547,-1000.000,-950.195,0.000
1748874957.508,966.797,172.363,-1000.000,596.680,0.000
1748874957.512,971.680,-1000.000,-1000.000,-1000.000,0.000
1748874957.516,971.191,-1000.000,-1000.000,-530.273,0.000
1748874957.519,971.191,-196.289,-1000.000,907.715,0.000
1748874957.523,971.191,-831.543,-1000.000,-890.137,0.000
1748874957.527,971.191,530.273,-1000.000,463.867,0.000
1748874957.531,971.191,-838.867,-1000.000,-932.617,0.000
1748874957.535,971.191,-1000.000,-1000.000,-1000.000,0.000
1748874957.539,971.191,-198.242,-1000.000,249.512,0.000
1748874957.543,971.191,-967.285,-1000.000,-777.832,0.000
1748874957.547,971.191,958.008,-1000.000,393.555,0.000
1748874957.551,971.191,-284.668,-1000.000,-891.602,0.000
1748874957.555,971.191,-1000.000,-1000.000,-1000.000,0.000
1748874957.559,984.863,-209.473,-1000.000,-240.234,0.000
1748874957.562,905.762,-975.586,-1000.000,-831.543,0.000
1748874957.566,-934.570,983.398,-1000.000,301.758,0.000
1748874957.570,814.453,-222.168,-1000.000,-975.098,0.000
1748874957.574,-548.828,-1000.000,-1000.000,-1000.000,0.000
1748874957.578,270.508,-680.664,-1000.000,-455.566,0.000
1748874957.582,-903.809,729.492,-1000.000,-907.715,0.000
1748874957.586,-968.262,-940.918,-1000.000,304.199,0.000
1748874957.590,353.027,-363.281,-1000.000,-1000.000,0.000
1748874957.594,-1000.000,-1000.000,-1000.000,-1000.000,0.000
1748874957.598,-219.727,-1000.000,-1000.000,-983.398,0.000
1748874957.601,-982.422,-4.395,-1000.000,542.969,0.000
1748874957.605,-918.945,-996.094,-1000.000,528.320,0.000
1748874957.609,121.582,-527.344,-1000.000,-1000.000,0.000
1748874957.613,-997.559,-1000.000,-1000.000,-951.172,0.000
1748874957.617,-1000.000,-1000.000,-1000.000,-1000.000,0.000
1748874957.621,-67.383,-461.426,-1000.000,12.695,0.000
1748874957.625,635.742,160.645,-1000.000,441.895,0.000
1748874957.629,-922.363,-973.633,-1000.000,-1000.000,0.000
1748874957.633,-994.629,-1000.000,-1000.000,-951.660,0.000
